wavelength,reflectance
1300.0,0.8875
1302.0,0.8906000000000001
1304.0,0.8925
1306.0,0.8909999999999999
1308.0,0.8901
1310.0,0.8891
1312.0,0.8887999999999999
1314.0,0.8885
1316.0,0.8878
1318.0,0.8863
1320.0,0.8852
1322.0,0.8845999999999999
1324.0,0.8856999999999999
1326.0,0.8867
1328.0,0.8876000000000001
1330.0,0.8876999999999999
1332.0,0.8869
1334.0,0.8870999999999999
1336.0,0.8883
1338.0,0.8876999999999999
1340.0,0.8876000000000001
1342.0,0.8862000000000001
1344.0,0.8854000000000001
1346.0,0.8856
1348.0,0.8863
1350.0,0.8865000000000001
1352.0,0.8869
1354.0,0.8861
1356.0,0.8853
1358.0,0.8843000000000001
1360.0,0.884
1362.0,0.8845000000000001
1364.0,0.8856
1366.0,0.8861
1368.0,0.8856999999999999
1370.0,0.8848999999999999
1372.0,0.8835999999999999
1374.0,0.8820999999999999
1376.0,0.8794
1378.0,0.8741
1380.0,0.8629000000000001
1382.0,0.841
1384.0,0.8044
1386.0,0.7569
1388.0,0.7081999999999999
1390.0,0.6736
1392.0,0.6634
1394.0,0.67865
1396.0,0.7103
1398.0,0.7481
1400.0,0.7825
1402.0,0.8094
1404.0,0.8279000000000001
1406.0,0.8401000000000001
1408.0,0.8476
1410.0,0.8523000000000001
1412.0,0.855
1414.0,0.8562000000000001
1416.0,0.8568000000000001
1418.0,0.8573000000000001
1420.0,0.858
1422.0,0.8584999999999999
1424.0,0.8587
1426.0,0.8586
1428.0,0.8581
1430.0,0.8581
1432.0,0.858
1434.0,0.8572
1436.0,0.8565
1438.0,0.8559
1440.0,0.8558
1442.0,0.8556999999999999
1444.0,0.8556
1446.0,0.8563
1448.0,0.8572
1450.0,0.8582
1452.0,0.8593999999999999
1454.0,0.86
1456.0,0.8606999999999999
1458.0,0.8619
1460.0,0.8626999999999999
1462.0,0.8634999999999999
1464.0,0.8641
1466.0,0.8641
1468.0,0.8643000000000001
1470.0,0.8649
1472.0,0.8654000000000001
1474.0,0.8661
1476.0,0.8669
1478.0,0.8676
1480.0,0.8679000000000001
1482.0,0.8683
1484.0,0.8687999999999999
1486.0,0.8692
1488.0,0.8698999999999999
1490.0,0.8702
1492.0,0.8702
1494.0,0.8698
1496.0,0.8692
1498.0,0.8686
1500.0,0.8681
1502.0,0.8679000000000001
1504.0,0.8679000000000001
1506.0,0.8679000000000001
1508.0,0.8684000000000001
1510.0,0.8687999999999999
1512.0,0.8692
1514.0,0.8694
1516.0,0.8693000000000001
1518.0,0.8687
1520.0,0.8679000000000001
1522.0,0.867
1524.0,0.8663
1526.0,0.8652
1528.0,0.8639
1530.0,0.8628
1532.0,0.8623000000000001
1534.0,0.8626999999999999
1536.0,0.8633
1538.0,0.8639
1540.0,0.8645
1542.0,0.8648
1544.0,0.8654999999999999
1546.0,0.8665999999999999
1548.0,0.8676
1550.0,0.8684000000000001
1552.0,0.8691
1554.0,0.8698
1556.0,0.8706999999999999
1558.0,0.8714
1560.0,0.872
1562.0,0.8725
1564.0,0.8728
1566.0,0.8731
1568.0,0.8733
1570.0,0.8734000000000001
1572.0,0.8737999999999999
1574.0,0.8744
1576.0,0.8752
1578.0,0.8759
1580.0,0.8763
1582.0,0.8765999999999999
1584.0,0.8768
1586.0,0.8771
1588.0,0.8774
1590.0,0.878
1592.0,0.8784000000000001
1594.0,0.8789
1596.0,0.8795000000000001
1598.0,0.8797
1600.0,0.88
1602.0,0.8802
1604.0,0.8802
1606.0,0.8809
1608.0,0.8814
1610.0,0.8819
1612.0,0.8824
1614.0,0.8825
1616.0,0.8828
1618.0,0.8832
1620.0,0.8832
1622.0,0.8833
1624.0,0.8833
1626.0,0.8837
1628.0,0.8845000000000001
1630.0,0.885
1632.0,0.8852
1634.0,0.8854000000000001
1636.0,0.8856999999999999
1638.0,0.8863
1640.0,0.8867
1642.0,0.8861
1644.0,0.8859
1646.0,0.8859
1648.0,0.8862000000000001
1650.0,0.8867
1652.0,0.8867
1654.0,0.8865999999999999
1656.0,0.8867
1658.0,0.8868
1660.0,0.887
1662.0,0.887
1664.0,0.887
1666.0,0.887
1668.0,0.8869
1670.0,0.8872
1672.0,0.8870999999999999
1674.0,0.887
1676.0,0.8868
1678.0,0.8865000000000001
1680.0,0.8862000000000001
1682.0,0.8859999999999999
1684.0,0.8859
1686.0,0.8859
1688.0,0.8859
1690.0,0.8855
1692.0,0.8855
1694.0,0.8858
1696.0,0.8856999999999999
1698.0,0.8853
1700.0,0.885
1702.0,0.8851
1704.0,0.8853
1706.0,0.8852
1708.0,0.8848999999999999
1710.0,0.8845999999999999
1712.0,0.8844
1714.0,0.8845000000000001
1716.0,0.8841
1718.0,0.8835999999999999
1720.0,0.8837
1722.0,0.8835999999999999
1724.0,0.8835999999999999
1726.0,0.8835999999999999
1728.0,0.8832
1730.0,0.8832
1732.0,0.8832
1734.0,0.8829
1736.0,0.883
1738.0,0.8834000000000001
1740.0,0.8835999999999999
1742.0,0.8833
1744.0,0.8826999999999999
1746.0,0.8822
1748.0,0.8820999999999999
1750.0,0.8819
1752.0,0.8812000000000001
1754.0,0.8802
1756.0,0.8795000000000001
1758.0,0.8795999999999999
1760.0,0.8795999999999999
1762.0,0.8795000000000001
1764.0,0.8793000000000001
1766.0,0.8791
1768.0,0.8795000000000001
1770.0,0.8793000000000001
1772.0,0.8787
1774.0,0.8782
1776.0,0.8778
1778.0,0.8776999999999999
1780.0,0.8774
1782.0,0.8771
1784.0,0.877
1786.0,0.8764
1788.0,0.8759999999999999
1790.0,0.8756
1792.0,0.8754000000000001
1794.0,0.8754000000000001
1796.0,0.8752
1798.0,0.8745
1800.0,0.8737999999999999
1802.0,0.8726
1804.0,0.8718
1806.0,0.8711
1808.0,0.8703
1810.0,0.8687
1812.0,0.8669
1814.0,0.8651000000000001
1816.0,0.8640000000000001
1818.0,0.8631
1820.0,0.8622
1822.0,0.861
1824.0,0.8597
1826.0,0.8584
1828.0,0.8571
1830.0,0.856
1832.0,0.8554
1834.0,0.8547
1836.0,0.8545999999999999
1838.0,0.8543999999999999
1840.0,0.8541
1842.0,0.8539
1844.0,0.8536
1846.0,0.8531
1848.0,0.8522
1850.0,0.8513
1852.0,0.8503000000000001
1854.0,0.8493999999999999
1856.0,0.8486
1858.0,0.8478
1860.0,0.8469
1862.0,0.846
1864.0,0.8445999999999999
1866.0,0.8432999999999999
1868.0,0.8419
1870.0,0.84
1872.0,0.8384
1874.0,0.8366
1876.0,0.835
1878.0,0.8337
1880.0,0.8327
1882.0,0.8320000000000001
1884.0,0.8316
1886.0,0.831
1888.0,0.8299
1890.0,0.8277
1892.0,0.8256
1894.0,0.8238
1896.0,0.8220000000000001
1898.0,0.8197
1900.0,0.8173999999999999
1902.0,0.8148000000000001
1904.0,0.8131
1906.0,0.8123
1908.0,0.8114
1910.0,0.81085
1912.0,0.8104
1914.0,0.8101999999999999
1916.0,0.81085
1918.0,0.8112
1920.0,0.8117
1922.0,0.8117
1924.0,0.8116
1926.0,0.8119
1928.0,0.8115000000000001
1930.0,0.8109999999999999
1932.0,0.8108
1934.0,0.81085
1936.0,0.8115000000000001
1938.0,0.8112999999999999
1940.0,0.8106
1942.0,0.8097
1944.0,0.8085
1946.0,0.8078
1948.0,0.8073999999999999
1950.0,0.8070999999999999
1952.0,0.8065000000000001
1954.0,0.8057
1956.0,0.8058
1958.0,0.8059000000000001
1960.0,0.8059000000000001
1962.0,0.8057
1964.0,0.8051999999999999
1966.0,0.8057
1968.0,0.8064
1970.0,0.8062999999999999
1972.0,0.8056
1974.0,0.8046
1976.0,0.8029000000000001
1978.0,0.8020999999999999
1980.0,0.8008
1982.0,0.7996
1984.0,0.7992
1986.0,0.7981999999999999
1988.0,0.7979999999999999
1990.0,0.797
1992.0,0.7957500000000001
1994.0,0.7948000000000001
1996.0,0.7937000000000001
1998.0,0.7929999999999999
2000.0,0.7928000000000001
2002.0,0.7925
2004.0,0.7916
2006.0,0.7896500000000001
2008.0,0.7873
2010.0,0.78535
2012.0,0.7847
2014.0,0.785
2016.0,0.78605
2018.0,0.7881999999999999
2020.0,0.7909999999999999
2022.0,0.7953
2024.0,0.8
2026.0,0.8039000000000001
2028.0,0.8062999999999999
2030.0,0.8073999999999999
2032.0,0.8088
2034.0,0.81
2036.0,0.8101999999999999
2038.0,0.8093
2040.0,0.8079999999999999
2042.0,0.8062999999999999
2044.0,0.8046
2046.0,0.8031
2048.0,0.8019
2050.0,0.8006
2052.0,0.799
2054.0,0.7968500000000001
2056.0,0.7955
2058.0,0.7940999999999999
2060.0,0.7924
2062.0,0.7902
2064.0,0.7866
2066.0,0.7817000000000001
2068.0,0.7746999999999999
2070.0,0.76595
2072.0,0.7558
2074.0,0.7463
2076.0,0.74
2078.0,0.7383
2080.0,0.741
2082.0,0.7461
2084.0,0.7501000000000001
2086.0,0.753
2088.0,0.755
2090.0,0.7564
2092.0,0.7584000000000001
2094.0,0.7592
2096.0,0.7606999999999999
2098.0,0.7622
2100.0,0.7634000000000001
2102.0,0.7643000000000001
2104.0,0.7643000000000001
2106.0,0.7646
2108.0,0.7637999999999999
2110.0,0.7609999999999999
2112.0,0.7570999999999999
2114.0,0.7532
2116.0,0.7515000000000001
2118.0,0.7519
2120.0,0.7518
2122.0,0.7495
2124.0,0.7447
2126.0,0.7394
2128.0,0.736
2130.0,0.7345
2132.0,0.7349
2134.0,0.7363
2136.0,0.7373999999999999
2138.0,0.7386
2140.0,0.7401000000000001
2142.0,0.7417
2144.0,0.7434000000000001
2146.0,0.7458499999999999
2148.0,0.7495
2150.0,0.754
2152.0,0.7565999999999999
2154.0,0.7569
2156.0,0.7564
2158.0,0.7565000000000001
2160.0,0.7561
2162.0,0.7543000000000001
2164.0,0.7512000000000001
2166.0,0.7483
2168.0,0.7454000000000001
2170.0,0.7428
2172.0,0.7403
2174.0,0.7386499999999999
2176.0,0.7387999999999999
2178.0,0.7398
2180.0,0.7415
2182.0,0.7448999999999999
2184.0,0.7494
2186.0,0.75375
2188.0,0.7564
2190.0,0.7576999999999999
2192.0,0.7583
2194.0,0.7587
2196.0,0.7593000000000001
2198.0,0.7595000000000001
2200.0,0.7593000000000001
2202.0,0.7583
2204.0,0.757
2206.0,0.7559999999999999
2208.0,0.7552
2210.0,0.7539
2212.0,0.7522
2214.0,0.7497
2216.0,0.7475
2218.0,0.7439
2220.0,0.7382
2222.0,0.7302
2224.0,0.7176
2226.0,0.703
2228.0,0.6893
2230.0,0.67975
2232.0,0.6772
2234.0,0.6796
2236.0,0.6851999999999999
2238.0,0.6907
2240.0,0.6936
2242.0,0.6942
2244.0,0.6926000000000001
2246.0,0.6904
2248.0,0.6876000000000001
2250.0,0.6849
2252.0,0.6815000000000001
2254.0,0.6767
2256.0,0.672
2258.0,0.6662
2260.0,0.66
2262.0,0.6524
2264.0,0.6446999999999999
2266.0,0.6365999999999999
2268.0,0.62695
2270.0,0.6157
2272.0,0.6018
2274.0,0.5874
2276.0,0.5716
2278.0,0.5535
2280.0,0.5325
2282.0,0.5075
2284.0,0.48100000000000004
2286.0,0.4557
2288.0,0.43810000000000004
2290.0,0.43270000000000003
2292.0,0.4403
2294.0,0.45530000000000004
2296.0,0.46799999999999997
2298.0,0.4714
2300.0,0.4635
2302.0,0.447
2304.0,0.4251
2306.0,0.40145000000000003
2308.0,0.38025
2310.0,0.36579999999999996
2312.0,0.361
2314.0,0.36979999999999996
2316.0,0.3883
2318.0,0.4119
2320.0,0.4355
2322.0,0.4568
2324.0,0.4768
2326.0,0.49939999999999996
2328.0,0.5247999999999999
2330.0,0.5516
2332.0,0.5748
2334.0,0.5922999999999999
2336.0,0.6064
2338.0,0.6172
2340.0,0.6246
2342.0,0.6282
2344.0,0.6279
2346.0,0.6249
2348.0,0.6199
2350.0,0.6148
2352.0,0.6086
2354.0,0.6027
2356.0,0.5988
2358.0,0.5975
2360.0,0.5971
2362.0,0.5952000000000001
2364.0,0.5919
2366.0,0.5863
2368.0,0.5771999999999999
2370.0,0.5654
2372.0,0.5528
2374.0,0.5407
2376.0,0.52925
2378.0,0.5196999999999999
2380.0,0.5115
2382.0,0.5047
2384.0,0.4984
2386.0,0.4928
2388.0,0.488
2390.0,0.4832
2392.0,0.4815
2394.0,0.4839
2396.0,0.4921
2398.0,0.5085999999999999
2400.0,0.5307
2402.0,0.5554
2404.0,0.5771000000000001
2406.0,0.5949
2408.0,0.6065
2410.0,0.6133
2412.0,0.6156
2414.0,0.6146
2416.0,0.6114999999999999
2418.0,0.6065
2420.0,0.5998
2422.0,0.5902000000000001
2424.0,0.5793
2426.0,0.5704
2428.0,0.5671
2430.0,0.5682
2432.0,0.5694
2434.0,0.5686
2436.0,0.5666
2438.0,0.565
2440.0,0.5653
2442.0,0.5656
2444.0,0.5657
2446.0,0.5657
2448.0,0.564
2450.0,0.5602
2452.0,0.55475
2454.0,0.55
2456.0,0.5452
2458.0,0.54
2460.0,0.5329999999999999
2462.0,0.5254
2464.0,0.51955
2466.0,0.5174
2468.0,0.5199
2470.0,0.527
2472.0,0.5373
2474.0,0.5496
2476.0,0.5633
2478.0,0.5766
2480.0,0.5849
2482.0,0.5891
2484.0,0.5896
2486.0,0.5871999999999999
2488.0,0.5838
2490.0,0.58
2492.0,0.5756
2494.0,0.5692
2496.0,0.565
2498.0,0.5636
2500.0,0.5637
